##TITLE=
##JCAMP-DX=4.24
##DATA TYPE= LINK
##ORIGIN=
##OWNER=
##BLOCKS=2
##TITLE=
##JCAMP-DX=4.24
##DATA TYPE=INFRARED SPECTRUM
##ORIGIN=
##OWNER=
##SAMPLE DESCRIPTION=
##SAMPLING PROCEDURE=
##DATA PROCESSING=
##XUNITS=1/CM
##YUNITS=ABSORBANCE
##XFACTOR= 1.0
##YFACTOR= 0.000001
##FIRSTX=11995.21
##LASTX=3999.691
##FIRSTY=  0.032112
##MINY=  0.032038
##MAXY=  0.529274
##NPOINTS=2074
##XYPOINTS= (XY..XY)
  11995.21,    32112;   11991.36,    32505;   11987.5,    32727;   11983.64,    33481; 
  11979.79,    33798;   11975.93,    33076;   11972.07,    32550;   11968.22,    33189; 
  11964.36,    34209;   11960.5,    34334;   11956.64,    33779;   11952.79,    33532; 
  11948.93,    33671;   11945.07,    33749;   11941.22,    33071;   11937.36,    32037; 
  11933.5,    32481;   11929.65,    34003;   11925.79,    34338;   11921.93,    33423; 
  11918.08,    32760;   11914.22,    33123;   11910.36,    34266;   11906.5,    35059; 
  11902.65,    34598;   11898.79,    33495;   11894.93,    33248;   11891.08,    34046; 
  11887.22,    34397;   11883.36,    34034;   11879.51,    34251;   11875.65,    34795; 
  11871.79,    34599;   11867.93,    34165;   11864.08,    34094;   11860.22,    33945; 
  11856.36,    33747;   11852.51,    34062;   11848.65,    34899;   11844.79,    35760; 
  11840.94,    36143;   11837.08,    35971;   11833.22,    35325;   11829.36,    34500; 
  11825.51,    34331;   11821.65,    34834;   11817.79,    34951;   11813.94,    34685; 
  11810.08,    34963;   11806.22,    35589;   11802.37,    35911;   11798.51,    36050; 
  11794.65,    35980;   11790.79,    35262;   11786.94,    33967;   11783.08,    33030; 
  11779.22,    32798;   11775.37,    32695;   11771.51,    32967;   11767.65,    33874; 
  11763.8,    34913;   11759.94,    35888;   11756.08,    36478;   11752.22,    36323; 
  11748.37,    35975;   11744.51,    36169;   11740.65,    36505;   11736.8,    36334; 
  11732.94,    36290;   11729.08,    36669;   11725.23,    36621;   11721.37,    36252; 
  11717.51,    36179;   11713.66,    36089;   11709.8,    35646;   11705.94,    35219; 
  11702.08,    35332;   11698.23,    35760;   11694.37,    36100;   11690.51,    36456; 
  11686.66,    36448;   11682.8,    36059;   11678.94,    36019;   11675.08,    36061; 
  11671.23,    35798;   11667.37,    35744;   11663.51,    35995;   11659.66,    36224; 
  11655.8,    36749;   11651.94,    37701;   11648.09,    38057;   11644.23,    37255; 
  11640.37,    36244;   11636.52,    35966;   11632.66,    36374;   11628.8,    36598; 
  11624.94,    35973;   11621.09,    35370;   11617.23,    35622;   11613.37,    36135; 
  11609.52,    36631;   11605.66,    37049;   11601.8,    37024;   11597.95,    36870; 
  11594.09,    36858;   11590.23,    36842;   11586.38,    36662;   11582.52,    36307; 
  11578.66,    36270;   11574.8,    36705;   11570.95,    37013;   11567.09,    36945; 
  11563.23,    36835;   11559.38,    36671;   11555.52,    36204;   11551.66,    35979; 
  11547.8,    36592;   11543.95,    37530;   11540.09,    37977;   11536.23,    37822; 
  11532.38,    37542;   11528.52,    37446;   11524.66,    37324;   11520.81,    37032; 
  11516.95,    36667;   11513.09,    36383;   11509.24,    36501;   11505.38,    36974; 
  11501.52,    37305;   11497.66,    37509;   11493.81,    37790;   11489.95,    37975; 
  11486.09,    38147;   11482.24,    38493;   11478.38,    38641;   11474.52,    38184; 
  11470.67,    37514;   11466.81,    37357;   11462.95,    37504;   11459.09,    37201; 
  11455.24,    36837;   11451.38,    37482;   11447.52,    38790;   11443.67,    39327; 
  11439.81,    39006;   11435.95,    39005;   11432.1,    39489;   11428.24,    39693; 
  11424.38,    39452;   11420.52,    39030;   11416.67,    38925;   11412.81,    39567; 
  11408.95,    40162;   11405.1,    39868;   11401.24,    39126;   11397.38,    38595; 
  11393.53,    38723;   11389.67,    39325;   11385.81,    39804;   11381.96,    40207; 
  11378.1,    40289;   11374.24,    39824;   11370.38,    39525;   11366.53,    39542; 
  11362.67,    39525;   11358.81,    39827;   11354.96,    40569;   11351.1,    41074; 
  11347.24,    40998;   11343.38,    40604;   11339.53,    40283;   11335.67,    40301; 
  11331.81,    40446;   11327.96,    40384;   11324.1,    40046;   11320.24,    39555; 
  11316.39,    39225;   11312.53,    39194;   11308.67,    39385;   11304.82,    39569; 
  11300.96,    39624;   11297.1,    40068;   11293.24,    41071;   11289.39,    41810; 
  11285.53,    41821;   11281.67,    41570;   11277.82,    41537;   11273.96,    41653; 
  11270.1,    41505;   11266.25,    41111;   11262.39,    41141;   11258.53,    41715; 
  11254.67,    41914;   11250.82,    41285;   11246.96,    40785;   11243.1,    41086; 
  11239.25,    41391;   11235.39,    41066;   11231.53,    40709;   11227.68,    40837; 
  11223.82,    40934;   11219.96,    40677;   11216.1,    40836;   11212.25,    41708; 
  11208.39,    42330;   11204.53,    42221;   11200.68,    42048;   11196.82,    42092; 
  11192.96,    41910;   11189.11,    41699;   11185.25,    41982;   11181.39,    42388; 
  11177.53,    42490;   11173.68,    42425;   11169.82,    42194;   11165.96,    41833; 
  11162.11,    41780;   11158.25,    42211;   11154.39,    42477;   11150.54,    42082; 
  11146.68,    41697;   11142.82,    42070;   11138.96,    42841;   11135.11,    43132; 
  11131.25,    42803;   11127.39,    42533;   11123.54,    42731;   11119.68,    42997; 
  11115.82,    42797;   11111.97,    42395;   11108.11,    42415;   11104.25,    42878; 
  11100.39,    43336;   11096.54,    43418;   11092.68,    43415;   11088.82,    43784; 
  11084.97,    44034;   11081.11,    43727;   11077.25,    43449;   11073.4,    43342; 
  11069.54,    43021;   11065.68,    42950;   11061.83,    43447;   11057.97,    43748; 
  11054.11,    43515;   11050.25,    43416;   11046.4,    43819;   11042.54,    44464; 
  11038.68,    44886;   11034.83,    44463;   11030.97,    43494;   11027.11,    43259; 
  11023.25,    43923;   11019.4,    44538;   11015.54,    44784;   11011.68,    44750; 
  11007.83,    44393;   11003.97,    44177;   11000.11,    44363;   10996.26,    44313; 
  10992.4,    43978;   10988.54,    44185;   10984.69,    44953;   10980.83,    45229; 
  10976.97,    44812;   10973.11,    44759;   10969.26,    45184;   10965.4,    45265; 
  10961.54,    45056;   10957.69,    45107;   10953.83,    45454;   10949.97,    45689; 
  10946.12,    45444;   10942.26,    44849;   10938.4,    44597;   10934.54,    45044; 
  10930.69,    45472;   10926.83,    45395;   10922.97,    45300;   10919.12,    45450; 
  10915.26,    45773;   10911.4,    46154;   10907.55,    46257;   10903.69,    46138; 
  10899.83,    46058;   10895.97,    45955;   10892.12,    45892;   10888.26,    46053; 
  10884.4,    46220;   10880.55,    45972;   10876.69,    45532;   10872.83,    45444; 
  10868.98,    45717;   10865.12,    46206;   10861.26,    46725;   10857.41,    46891; 
  10853.55,    46626;   10849.69,    46260;   10845.83,    46135;   10841.98,    46413; 
  10838.12,    47010;   10834.26,    47516;   10830.41,    47554;   10826.55,    47233; 
  10822.69,    46858;   10818.83,    46546;   10814.98,    46314;   10811.12,    46409; 
  10807.26,    47001;   10803.41,    47558;   10799.55,    47730;   10795.69,    47897; 
  10791.84,    47981;   10787.98,    47631;   10784.12,    47113;   10780.27,    46829; 
  10776.41,    47041;   10772.55,    47420;   10768.69,    47336;   10764.84,    47329; 
  10760.98,    47813;   10757.12,    47897;   10753.27,    47418;   10749.41,    47228; 
  10745.55,    47523;   10741.7,    47909;   10737.84,    48292;   10733.98,    48694; 
  10730.13,    48920;   10726.27,    48994;   10722.41,    48949;   10718.55,    48687; 
  10714.7,    48520;   10710.84,    48620;   10706.98,    48820;   10703.13,    49068; 
  10699.27,    49323;   10695.41,    49382;   10691.55,    48871;   10687.7,    48251; 
  10683.84,    48459;   10679.98,    49051;   10676.13,    49365;   10672.27,    49553; 
  10668.41,    49536;   10664.56,    49327;   10660.7,    49244;   10656.84,    49308; 
  10652.99,    49398;   10649.13,    49573;   10645.27,    49831;   10641.41,    49924; 
  10637.56,    49813;   10633.7,    49682;   10629.84,    49527;   10625.99,    49440; 
  10622.13,    49539;   10618.27,    49730;   10614.42,    50022;   10610.56,    50283; 
  10606.7,    50415;   10602.84,    50564;   10598.99,    50456;   10595.13,    49976; 
  10591.27,    49741;   10587.42,    50023;   10583.56,    50242;   10579.7,    50088; 
  10575.85,    50146;   10571.99,    50725;   10568.13,    51356;   10564.27,    51621; 
  10560.42,    51424;   10556.56,    51010;   10552.7,    50704;   10548.85,    50490; 
  10544.99,    50364;   10541.13,    50537;   10537.28,    51015;   10533.42,    51390; 
  10529.56,    51325;   10525.71,    51161;   10521.85,    51482;   10517.99,    52121; 
  10514.13,    52358;   10510.28,    52136;   10506.42,    52071;   10502.56,    52197; 
  10498.71,    52061;   10494.85,    51713;   10490.99,    51625;   10487.13,    51951; 
  10483.28,    52237;   10479.42,    52305;   10475.56,    52346;   10471.71,    52251; 
  10467.85,    52145;   10463.99,    52270;   10460.14,    52461;   10456.28,    52623; 
  10452.42,    52789;   10448.56,    52736;   10444.71,    52386;   10440.85,    52219; 
  10436.99,    52379;   10433.14,    52478;   10429.28,    52599;   10425.42,    52790; 
  10421.57,    52733;   10417.71,    52755;   10413.85,    53208;   10410,    53532; 
  10406.14,    53292;   10402.28,    52780;   10398.42,    52376;   10394.57,    52325; 
  10390.71,    52701;   10386.85,    53281;   10383,    53768;   10379.14,    53961; 
  10375.28,    53845;   10371.43,    53728;   10367.57,    53812;   10363.71,    53950; 
  10359.85,    54022;   10356,    54110;   10352.14,    54322;   10348.28,    54407; 
  10344.43,    54134;   10340.57,    53871;   10336.71,    53883;   10332.86,    54039; 
  10329,    54384;   10325.14,    54930;   10321.28,    55336;   10317.43,    55284; 
  10313.57,    54811;   10309.71,    54361;   10305.86,    54385;   10302,    54779; 
  10298.14,    55117;   10294.29,    55161;   10290.43,    54959;   10286.57,    54837; 
  10282.71,    54926;   10278.86,    54875;   10275,    54755;   10271.14,    55135; 
  10267.29,    55769;   10263.43,    55926;   10259.57,    55584;   10255.72,    55179; 
  10251.86,    55059;   10248,    55276;   10244.14,    55554;   10240.29,    55640; 
  10236.43,    55603;   10232.57,    55810;   10228.72,    56339;   10224.86,    56664; 
  10221,    56577;   10217.15,    56496;   10213.29,    56648;   10209.43,    56938; 
  10205.58,    57115;   10201.72,    57006;   10197.86,    56787;   10194,    56701; 
  10190.15,    56842;   10186.29,    57180;   10182.43,    57509;   10178.58,    57471; 
  10174.72,    57092;   10170.86,    56821;   10167,    56754;   10163.15,    56861; 
  10159.29,    57142;   10155.43,    57347;   10151.58,    57440;   10147.72,    57505; 
  10143.86,    57492;   10140.01,    57561;   10136.15,    57789;   10132.29,    57814; 
  10128.44,    57539;   10124.58,    57356;   10120.72,    57437;   10116.86,    57722; 
  10113.01,    58071;   10109.15,    58253;   10105.29,    58279;   10101.44,    58320; 
  10097.58,    58391;   10093.72,    58449;   10089.87,    58569;   10086.01,    58811; 
  10082.15,    58961;   10078.29,    58750;   10074.44,    58443;   10070.58,    58548; 
  10066.72,    58941;   10062.87,    59083;   10059.01,    58921;   10055.15,    58890; 
  10051.3,    59153;   10047.44,    59364;   10043.58,    59258;   10039.72,    59046; 
  10035.87,    59040;   10032.01,    59279;   10028.15,    59534;   10024.3,    59533; 
  10020.44,    59485;   10016.58,    59796;   10012.73,    60186;   10008.87,    60245; 
  10005.01,    60092;   10001.16,    59946;   9997.298,    60002;   9993.441,    60253; 
  9989.584,    60448;   9985.727,    60504;   9981.87,    60410;   9978.014,    60246; 
  9974.156,    60217;   9970.299,    60345;   9966.442,    60654;   9962.585,    61118; 
  9958.729,    61374;   9954.871,    61264;   9951.015,    61073;   9947.157,    60933; 
  9943.301,    60775;   9939.443,    60824;   9935.586,    61243;   9931.729,    61672; 
  9927.872,    61971;   9924.016,    62356;   9920.158,    62591;   9916.302,    62395; 
  9912.444,    62048;   9908.588,    61837;   9904.73,    61757;   9900.873,    61832; 
  9897.017,    62154;   9893.159,    62432;   9889.303,    62309;   9885.445,    62105; 
  9881.589,    62100;   9877.731,    62176;   9873.875,    62324;   9870.018,    62377; 
  9866.16,    62397;   9862.304,    62751;   9858.447,    63149;   9854.59,    63159; 
  9850.732,    62954;   9846.876,    62855;   9843.019,    62993;   9839.162,    63233; 
  9835.305,    63259;   9831.447,    63053;   9827.591,    63072;   9823.734,    63518; 
  9819.877,    63951;   9816.02,    63983;   9812.163,    63802;   9808.306,    63768; 
  9804.449,    63853;   9800.592,    63937;   9796.734,    64137;   9792.878,    64380; 
  9789.021,    64451;   9785.164,    64347;   9781.307,    64269;   9777.45,    64412; 
  9773.593,    64590;   9769.736,    64556;   9765.879,    64472;   9762.022,    64487; 
  9758.165,    64454;   9754.309,    64307;   9750.451,    64371;   9746.594,    64764; 
  9742.737,    64929;   9738.88,    64724;   9735.023,    64776;   9731.166,    65045; 
  9727.31,    64953;   9723.452,    64773;   9719.596,    64987;   9715.738,    65359; 
  9711.881,    65510;   9708.024,    65339;   9704.168,    65164;   9700.311,    65343; 
  9696.453,    65705;   9692.597,    66024;   9688.739,    66278;   9684.883,    66378; 
  9681.025,    66364;   9677.168,    66422;   9673.312,    66536;   9669.455,    66587; 
  9665.598,    66630;   9661.74,    66720;   9657.884,    66796;   9654.026,    66845; 
  9650.17,    66878;   9646.313,    66868;   9642.455,    66895;   9638.599,    67118; 
  9634.742,    67414;   9630.885,    67521;   9627.027,    67582;   9623.171,    67768; 
  9619.313,    67842;   9615.457,    67726;   9611.6,    67687;   9607.743,    67836; 
  9603.886,    68049;   9600.029,    68193;   9596.172,    68209;   9592.314,    68174; 
  9588.458,    68214;   9584.601,    68303;   9580.744,    68360;   9576.887,    68458; 
  9573.03,    68645;   9569.173,    68799;   9565.316,    68894;   9561.459,    68968; 
  9557.602,    68936;   9553.745,    68878;   9549.889,    69038;   9546.031,    69226; 
  9542.174,    69165;   9538.317,    69110;   9534.46,    69231;   9530.604,    69387; 
  9526.746,    69557;   9522.889,    69738;   9519.032,    69850;   9515.176,    69834; 
  9511.318,    69798;   9507.461,    69971;   9503.604,    70227;   9499.747,    70255; 
  9495.891,    70098;   9492.033,    69962;   9488.177,    70043;   9484.319,    70337; 
  9480.463,    70522;   9476.605,    70610;   9472.748,    70822;   9468.892,    70982; 
  9465.034,    70961;   9461.178,    70850;   9457.32,    70707;   9453.464,    70685; 
  9449.606,    70936;   9445.75,    71301;   9441.893,    71445;   9438.035,    71245; 
  9434.179,    70974;   9430.322,    71060;   9426.465,    71426;   9422.607,    71692; 
  9418.751,    71887;   9414.894,    72046;   9411.037,    72013;   9407.18,    71927; 
  9403.322,    71994;   9399.466,    72122;   9395.609,    72226;   9391.752,    72464; 
  9387.895,    72793;   9384.038,    72838;   9380.181,    72599;   9376.324,    72472; 
  9372.467,    72579;   9368.609,    72819;   9364.753,    73078;   9360.896,    73178; 
  9357.039,    73109;   9353.182,    73102;   9349.325,    73220;   9345.468,    73210; 
  9341.611,    73150;   9337.754,    73265;   9333.897,    73367;   9330.04,    73429; 
  9326.184,    73653;   9322.326,    73970;   9318.469,    74188;   9314.612,    74200; 
  9310.755,    74046;   9306.898,    73994;   9303.041,    74244;   9299.185,    74542; 
  9295.327,    74652;   9291.471,    74716;   9287.613,    74794;   9283.756,    74818; 
  9279.899,    74823;   9276.043,    74871;   9272.186,    74944;   9268.328,    75045; 
  9264.472,    75188;   9260.614,    75318;   9256.758,    75480;   9252.9,    75636; 
  9249.043,    75643;   9245.187,    75594;   9241.33,    75588;   9237.473,    75607; 
  9233.615,    75742;   9229.759,    76024;   9225.901,    76199;   9222.045,    76195; 
  9218.188,    76310;   9214.33,    76527;   9210.474,    76498;   9206.617,    76290; 
  9202.76,    76316;   9198.902,    76538;   9195.046,    76674;   9191.188,    76876; 
  9187.332,    77167;   9183.475,    77156;   9179.618,    76899;   9175.761,    76857; 
  9171.904,    77007;   9168.047,    77055;   9164.189,    77084;   9160.333,    77252; 
  9156.476,    77477;   9152.619,    77646;   9148.762,    77691;   9144.905,    77584; 
  9141.048,    77536;   9137.191,    77751;   9133.334,    78064;   9129.477,    78264; 
  9125.62,    78292;   9121.764,    78192;   9117.906,    78158;   9114.049,    78265; 
  9110.192,    78403;   9106.335,    78573;   9102.479,    78793;   9098.621,    78915; 
  9094.764,    78882;   9090.907,    78867;   9087.051,    79048;   9083.193,    79361; 
  9079.336,    79529;   9075.479,    79512;   9071.622,    79560;   9067.766,    79666; 
  9063.908,    79691;   9060.051,    79758;   9056.194,    79957;   9052.338,    80180; 
  9048.48,    80328;   9044.623,    80376;   9040.767,    80381;   9036.909,    80379; 
  9033.053,    80430;   9029.195,    80668;   9025.339,    81031;   9021.481,    81253; 
  9017.625,    81314;   9013.768,    81461;   9009.91,    81607;   9006.054,    81485; 
  9002.196,    81267;   8998.34,    81262;   8994.482,    81460;   8990.626,    81636; 
  8986.769,    81693;   8982.912,    81743;   8979.055,    81886;   8975.197,    82054; 
  8971.341,    82118;   8967.484,    82167;   8963.627,    82320;   8959.77,    82509; 
  8955.913,    82632;   8952.056,    82665;   8948.199,    82679;   8944.342,    82682; 
  8940.484,    82661;   8936.628,    82786;   8932.771,    83109;   8928.914,    83405; 
  8925.057,    83536;   8921.2,    83579;   8917.343,    83595;   8913.486,    83680; 
  8909.629,    83931;   8905.771,    84221;   8901.915,    84356;   8898.059,    84347; 
  8894.201,    84315;   8890.344,    84334;   8886.487,    84448;   8882.63,    84617; 
  8878.773,    84737;   8874.916,    84746;   8871.06,    84668;   8867.202,    84696; 
  8863.346,    84980;   8859.488,    85338;   8855.631,    85455;   8851.774,    85419; 
  8847.917,    85551;   8844.061,    85703;   8840.203,    85720;   8836.347,    85754; 
  8832.489,    85798;   8828.633,    85953;   8824.775,    86302;   8820.918,    86490; 
  8817.062,    86376;   8813.205,    86301;   8809.348,    86413;   8805.49,    86559; 
  8801.634,    86694;   8797.776,    86866;   8793.92,    87106;   8790.063,    87364; 
  8786.205,    87502;   8782.349,    87556;   8778.492,    87694;   8774.635,    87846; 
  8770.777,    87846;   8766.921,    87774;   8763.063,    87838;   8759.207,    88043; 
  8755.35,    88229;   8751.492,    88355;   8747.636,    88451;   8743.779,    88549; 
  8739.922,    88791;   8736.064,    89122;   8732.208,    89281;   8728.351,    89283; 
  8724.494,    89271;   8720.637,    89287;   8716.78,    89463;   8712.923,    89843; 
  8709.066,    90253;   8705.209,    90488;   8701.352,    90466;   8697.495,    90341; 
  8693.638,    90345;   8689.781,    90534;   8685.924,    90747;   8682.067,    90849; 
  8678.21,    90959;   8674.354,    91103;   8670.496,    91131;   8666.639,    91118; 
  8662.782,    91176;   8658.926,    91267;   8655.068,    91353;   8651.211,    91444; 
  8647.354,    91614;   8643.497,    91816;   8639.641,    91965;   8635.783,    92145; 
  8631.926,    92389;   8628.069,    92605;   8624.213,    92696;   8620.355,    92679; 
  8616.498,    92779;   8612.642,    93082;   8608.784,    93345;   8604.928,    93347; 
  8601.07,    93222;   8597.213,    93252;   8593.356,    93449;   8589.5,    93703; 
