##TITLE=tannic acid
##JCAMP-DX=4.24
##DATATYPE=RAMAN SPECTRUM
##ORIGIN=Ocean Optics R2000
##OWNER=Augustana College (SD), Chemistry Dept
##SPECTROMETER/DATA SYSTEM=Ocean Optics R2000
##DATE=2000/10/04
##TIME=14:47
##XUNITS=1/CM
##YUNITS=ARBITRARY UNITS
##FIRSTX=100.595
##LASTX=2854.713
##MAXX=2854.713
##MINX=100.595
##MAXY=300.889
##MINY=4.667
##XFACTOR=1.000000
##YFACTOR=1.000000
##NPOINTS=1949
##FIRSTY=42.644
##XYDATA=(XY..XY)
 100.595,   42.644
 102.805,   44.511
 105.013,   44.556
 107.220,   46.822
 109.426,   47.333
 111.631,   46.578
 113.835,   29.200
 116.037,   17.022
 118.238,   16.511
 120.438,   16.178
 122.637,   15.000
 124.835,   14.933
 127.032,   19.956
 129.227,   20.556
 131.421,   19.111
 133.614,   17.133
 135.806,   15.889
 137.997,   17.800
 140.186,   16.289
 142.375,   17.956
 144.562,   20.711
 146.748,   20.933
 148.933,   19.867
 151.116,   19.311
 153.299,   20.089
 155.480,   30.956
 157.660,   36.222
 159.839,   31.400
 162.017,   32.956
 164.194,   34.133
 166.369,   35.600
 168.544,   36.956
 170.717,   35.422
 172.889,   35.156
 175.060,   33.800
 177.229,   32.711
 179.398,   31.267
 181.565,   33.356
 183.732,   35.978
 185.897,   38.200
 188.061,   29.889
 190.223,   26.378
 192.385,   30.933
 194.546,   33.222
 196.705,   33.556
 198.863,   31.978
 201.020,   30.200
 203.176,   31.000
 205.331,   34.778
 207.484,   34.622
 209.637,   35.689
 211.788,   37.311
 213.938,   34.933
 216.087,   32.044
 218.235,   30.000
 220.382,   28.889
 222.527,   27.511
 224.672,   26.022
 226.815,   22.489
 228.957,   25.089
 231.098,   27.156
 233.238,   28.289
 235.377,   28.111
 237.514,   25.778
 239.651,   26.667
 241.786,   24.511
 243.920,   23.911
 246.053,   23.689
 248.185,   23.133
 250.316,   33.978
 252.446,   32.889
 254.574,   32.667
 256.702,   29.178
 258.828,   28.222
 260.953,   25.222
 263.077,   23.267
 265.200,   22.022
 267.322,   27.289
 269.443,   25.600
 271.562,   23.533
 273.681,   23.956
 275.798,   23.067
 277.914,   24.711
 280.029,   27.911
 282.143,   16.867
 284.256,   19.133
 286.368,   20.378
 288.478,   21.467
 290.588,   24.511
 292.696,   26.133
 294.803,   28.178
 296.910,   31.600
 299.015,   30.000
 301.118,   35.067
 303.221,   41.644
 305.323,   45.467
 307.423,   51.178
 309.523,   59.644
 311.621,   65.067
 313.719,   74.333
 315.815,   87.489
 317.910,   97.978
 320.004,  109.067
 322.096,  117.889
 324.188,  128.756
 326.279,  139.244
 328.368,  149.533
 330.457,  160.822
 332.544,  170.733
 334.630,  180.133
 336.715,  190.600
 338.799,  201.578
 340.882,  207.089
 342.964,  215.733
 345.045,  224.578
 347.124,  230.422
 349.203,  235.133
 351.280,  240.422
 353.357,  246.756
 355.432,  249.444
 357.506,  254.956
 359.579,  259.400
 361.651,  263.311
 363.722,  265.067
 365.792,  266.578
 367.861,  269.356
 369.928,  269.867
 371.995,  272.800
 374.060,  272.689
 376.125,  270.689
 378.188,  267.000
 380.250,  270.733
 382.311,  270.756
 384.371,  270.133
 386.430,  272.911
 388.488,  272.533
 390.545,  274.089
 392.601,  272.556
 394.655,  274.022
 396.709,  275.778
 398.761,  277.289
 400.813,  277.911
 402.863,  277.467
 404.912,  288.089
 406.960,  289.022
 409.007,  288.467
 411.053,  285.689
 413.098,  287.667
 415.142,  287.978
 417.185,  285.511
 419.227,  300.889
 421.268,  300.311
 423.307,  298.867
 425.346,  297.556
 427.383,  294.600
 429.420,  292.044
 431.455,  291.889
 433.489,  291.756
 435.522,  280.711
 437.555,  291.756
 439.586,  291.644
 441.616,  290.711
 443.645,  287.667
 445.673,  289.111
 447.699,  288.689
 449.725,  271.733
 451.750,  269.756
 453.774,  269.333
 455.796,  268.867
 457.818,  273.333
 459.838,  281.800
 461.858,  281.711
 463.876,  280.067
 465.893,  279.178
 467.910,  267.600
 469.925,  266.778
 471.939,  268.333
 473.952,  268.289
 475.964,  267.556
 477.975,  267.689
 479.985,  268.267
 481.994,  267.978
 484.002,  268.622
 486.009,  270.067
 488.015,  279.000
 490.020,  276.000
 492.023,  274.778
 494.026,  276.378
 496.028,  277.533
 498.028,  278.644
 500.028,  278.889
 502.026,  279.556
 504.024,  280.067
 506.020,  279.356
 508.016,  279.822
 510.010,  281.489
 512.003,  282.689
 513.996,  282.356
 515.987,  280.644
 517.977,  268.600
 519.966,  262.978
 521.954,  263.867
 523.942,  265.800
 525.928,  267.244
 527.913,  268.111
 529.897,  270.022
 531.880,  267.600
 533.862,  271.444
 535.843,  270.511
 537.822,  274.956
 539.801,  273.533
 541.779,  274.311
 543.756,  274.022
 545.732,  275.489
 547.706,  274.356
 549.680,  275.844
 551.653,  276.200
 553.625,  283.956
 555.595,  282.867
 557.565,  280.467
 559.534,  280.244
 561.501,  279.756
 563.468,  279.133
 565.433,  280.489
 567.398,  274.822
 569.362,  277.133
 571.324,  276.689
 573.286,  275.289
 575.246,  274.111
 577.206,  272.778
 579.164,  271.267
 581.121,  270.000
 583.078,  259.400
 585.033,  272.689
 586.988,  271.044
 588.941,  268.578
 590.894,  268.311
 592.845,  272.178
 594.795,  268.489
 596.745,  267.533
 598.693,  262.511
 600.640,  260.444
 602.587,  259.844
 604.532,  268.778
 606.477,  269.311
 608.420,  267.733
 610.362,  265.711
 612.304,  262.778
 614.244,  250.333
 616.183,  250.000
 618.122,  248.222
 620.059,  247.289
 621.995,  241.822
 623.931,  244.533
 625.865,  245.667
 627.798,  246.467
 629.731,  244.844
 631.662,  247.111
 633.592,  236.022
 635.522,  236.444
 637.450,  237.244
 639.377,  237.467
 641.304,  237.600
 643.229,  235.733
 645.154,  234.644
 647.077,  237.244
 648.999,  236.489
 650.921,  239.667
 652.841,  238.844
 654.761,  246.822
 656.679,  247.911
 658.597,  247.089
 660.513,  243.889
 662.429,  245.756
 664.343,  245.511
 666.257,  245.511
 668.169,  253.467
 670.081,  254.044
 671.992,  252.511
 673.901,  252.511
 675.810,  250.400
 677.717,  250.422
 679.624,  244.867
 681.530,  242.845
 683.434,  232.289
 685.338,  229.289
 687.241,  232.444
 689.143,  232.733
 691.044,  233.111
 692.943,  232.244
 694.842,  232.156
 696.740,  225.333
 698.637,  225.489
 700.533,  223.600
 702.428,  225.911
 704.322,  227.044
 706.215,  227.911
 708.107,  226.133
 709.998,  226.156
 711.888,  229.867
 713.777,  229.222
 715.666,  226.578
 717.553,  228.444
 719.439,  227.133
 721.324,  226.467
 723.209,  225.267
 725.092,  224.289
 726.974,  221.933
 728.856,  221.867
 730.736,  218.489
 732.616,  216.378
 734.494,  218.022
 736.372,  216.733
 738.249,  216.533
 740.124,  212.000
 741.999,  214.333
 743.873,  215.667
 745.746,  213.800
 747.617,  212.000
 749.488,  209.644
 751.358,  212.822
 753.227,  213.244
 755.095,  212.444
 756.962,  211.311
 758.828,  210.289
 760.694,  209.111
 762.558,  205.889
 764.421,  204.511
 766.283,  202.511
 768.145,  201.289
 770.005,  202.022
 771.865,  198.711
 773.723,  198.089
 775.581,  196.422
 777.437,  197.267
 779.293,  192.156
 781.148,  198.267
 783.001,  197.889
 784.854,  199.067
 786.706,  199.267
 788.557,  199.244
 790.407,  199.044
 792.256,  198.489
 794.104,  202.756
 795.951,  202.444
 797.798,  199.289
 799.643,  200.111
 801.487,  200.000
 803.331,  200.089
 805.173,  198.689
 807.015,  197.244
 808.855,  187.178
 810.695,  186.644
 812.534,  185.911
 814.372,  186.044
 816.209,  185.667
 818.044,  183.400
 819.879,  185.867
 821.714,  183.111
 823.547,  183.867
 825.379,  181.667
 827.210,  180.111
 829.041,  180.511
 830.870,  182.244
 832.698,  182.556
 834.526,  182.689
 836.353,  183.133
 838.178,  183.133
 840.003,  184.089
 841.827,  183.044
 843.650,  181.400
 845.472,  182.267
 847.293,  178.978
 849.113,  178.667
 850.932,  177.244
 852.751,  178.600
 854.568,  179.022
 856.385,  176.289
 858.200,  174.178
 860.015,  176.756
 861.829,  175.556
 863.641,  174.511
 865.453,  175.333
 867.264,  172.044
 869.074,  173.000
 870.883,  174.467
 872.692,  176.044
 874.499,  176.089
 876.305,  174.067
 878.111,  175.422
 879.915,  174.400
 881.719,  173.133
 883.522,  173.933
 885.324,  176.067
 887.125,  173.133
 888.925,  172.956
 890.724,  175.644
 892.522,  175.244
 894.319,  176.911
 896.115,  175.556
 897.911,  175.111
 899.705,  174.156
 901.499,  174.511
 903.292,  173.533
 905.084,  174.711
 906.875,  177.867
 908.665,  177.022
 910.454,  178.022
 912.242,  175.756
 914.029,  175.444
 915.816,  175.244
 917.601,  172.911
 919.386,  172.444
 921.170,  170.733
 922.952,  171.044
 924.734,  170.578
 926.515,  169.289
 928.295,  168.444
 930.075,  169.467
 931.853,  167.156
 933.630,  180.444
 935.407,  181.067
 937.183,  179.467
 938.957,  181.467
 940.731,  180.000
 942.504,  179.667
 944.276,  177.489
 946.047,  175.800
 947.818,  176.711
 949.587,  175.333
 951.356,  173.911
 953.123,  173.333
 954.890,  174.356
 956.656,  172.978
 958.421,  173.200
 960.185,  154.800
 961.948,  153.178
 963.710,  151.333
 965.472,  146.844
 967.232,  146.378
 968.992,  144.800
 970.751,  144.578
 972.508,  143.778
 974.265,  146.178
 976.021,  144.289
 977.777,  145.733
 979.531,  143.178
 981.284,  143.956
 983.037,  141.711
 984.789,  152.111
 986.540,  151.356
 988.289,  150.222
 990.039,  149.822
 991.787,  148.067
 993.534,  145.644
 995.280,  146.622
 997.026,  149.000
 998.771,  147.756
1000.514,  143.822
1002.257,  143.911
1003.999,  141.711
1005.741,  141.400
1007.481,  140.022
1009.220,  140.289
1010.959,  128.400
1012.697,  131.244
1014.433,  134.333
1016.169,  134.933
1017.904,  136.111
1019.639,  137.244
1021.372,  136.067
1023.105,  133.000
1024.836,  137.689
1026.567,  139.000
1028.297,  139.311
1030.026,  141.000
1031.754,  142.756
1033.481,  141.622
1035.208,  145.867
1036.933,  148.422
1038.658,  146.822
1040.382,  145.667
1042.105,  147.356
1043.827,  149.756
1045.548,  149.400
1047.268,  149.222
1048.988,  149.867
1050.707,  145.800
1052.424,  142.956
1054.141,  153.778
1055.857,  154.378
1057.573,  154.844
1059.287,  157.089
1061.001,  152.600
1062.713,  148.644
1064.425,  147.889
1066.136,  147.467
1067.846,  144.311
1069.555,  140.933
1071.264,  140.511
1072.971,  140.533
1074.678,  139.578
1076.384,  140.978
1078.089,  143.978
1079.793,  135.778
1081.496,  133.711
1083.199,  131.533
1084.900,  128.200
1086.601,  128.956
1088.301,  129.778
1090.000,  133.067
1091.698,  132.711
1093.396,  134.022
1095.092,  134.178
1096.788,  140.333
1098.483,  140.244
1100.177,  142.044
1101.870,  142.067
1103.562,  139.267
1105.254,  137.200
1106.944,  136.022
1108.634,  136.000
1110.323,  137.356
1112.011,  139.400
1113.698,  138.311
1115.385,  133.778
1117.070,  133.533
1118.755,  132.956
1120.439,  133.178
1122.122,  128.000
1123.804,  128.511
1125.486,  127.400
1127.166,  127.556
1128.846,  128.133
1130.525,  126.133
1132.203,  125.533
1133.880,  125.222
1135.556,  128.511
1137.232,  124.756
1138.907,  125.067
1140.581,  124.644
1142.254,  125.511
1143.926,  135.578
1145.597,  134.644
1147.268,  136.067
1148.938,  135.022
1150.607,  133.467
1152.275,  130.978
1153.942,  129.800
1155.608,  131.044
1157.274,  132.022
1158.939,  131.378
1160.603,  129.133
1162.266,  128.956
1163.928,  128.111
1165.590,  128.800
1167.250,  126.222
1168.910,  114.311
1170.569,  114.200
1172.227,  112.244
1173.885,  111.978
1175.541,  113.156
1177.197,  112.111
1178.852,  114.244
1180.506,  114.222
1182.159,  113.222
1183.812,  121.400
1185.463,  123.111
1187.114,  122.822
1188.764,  123.533
1190.413,  125.622
1192.062,  125.089
1193.709,  126.956
1195.356,  128.978
1197.002,  130.578
1198.647,  130.356
1200.291,  130.311
1201.935,  132.067
1203.577,  129.844
1205.219,  128.178
1206.860,  130.067
1208.501,  122.533
1210.140,  118.556
1211.779,  119.778
1213.416,  118.756
1215.053,  115.444
1216.690,  116.400
1218.325,  114.267
1219.960,  111.400
1221.593,  108.711
1223.226,  108.667
1224.859,  107.467
1226.490,  106.400
1228.120,  108.489
1229.750,  110.733
1231.379,  109.222
1233.007,  108.311
1234.635,  106.089
1236.261,  105.178
1237.887,  108.889
1239.512,  110.089
1241.136,  110.200
1242.759,  111.178
1244.382,  112.978
1246.003,  114.222
1247.624,  115.444
1249.245,  124.622
1250.864,  127.378
1252.482,  126.022
1254.100,  124.867
1255.717,  123.933
1257.333,  124.289
1258.949,  126.022
1260.563,  125.622
1262.177,  122.733
1263.790,  121.533
1265.402,  121.444
1267.013,  121.289
1268.624,  125.911
1270.234,  124.844
1271.843,  125.444
1273.451,  116.644
1275.058,  114.422
1276.665,  112.800
1278.271,  111.578
1279.876,  112.556
1281.480,  111.400
1283.084,  112.222
1284.686,  112.978
1286.288,  113.044
1287.889,  112.622
1289.490,  111.333
1291.089,  111.400
1292.688,  106.444
1294.286,  105.733
1295.883,  103.311
1297.479,  104.422
1299.075,  105.289
1300.670,  104.889
1302.264,  106.933
1303.857,  104.978
1305.450,  107.044
1307.041,  110.667
1308.632,  111.556
1310.222,  111.556
1311.812,  111.578
1313.400,  111.711
1314.988,  111.511
1316.575,  122.778
1318.161,  127.044
1319.747,  129.956
1321.332,  130.133
1322.915,  130.311
1324.499,  129.778
1326.081,  127.444
1327.663,  127.444
1329.243,  127.667
1330.823,  123.511
1332.403,  123.600
1333.981,  123.311
1335.559,  123.022
1337.136,  126.600
1338.712,  125.022
1340.287,  112.978
1341.862,  114.378
1343.436,  114.000
1345.009,  112.467
1346.581,  111.844
1348.153,  112.444
1349.724,  115.467
1351.294,  116.200
1352.863,  114.044
1354.431,  111.644
1355.999,  109.511
1357.566,  107.644
1359.132,  107.711
1360.697,  104.911
1362.262,  107.778
1363.826,  107.489
1365.389,  101.622
1366.951,   98.911
1368.513,   99.556
1370.074,   98.756
1371.634,   98.311
1373.193,   94.822
1374.752,   93.356
1376.309,   92.800
1377.866,   92.644
1379.423,   94.111
1380.978,   93.800
1382.533,   96.533
1384.087,   95.556
1385.640,   92.156
1387.193,   91.311
1388.744,   90.667
1390.295,   91.978
1391.845,   90.089
1393.395,   89.200
1394.944,   88.844
1396.491,   89.422
1398.039,   89.378
1399.585,   91.400
1401.131,   91.400
1402.676,   90.778
1404.220,   91.600
1405.763,   88.578
1407.306,   87.822
1408.848,   93.644
1410.389,   93.422
1411.929,   95.200
1413.469,   93.200
1415.008,   94.267
1416.546,   94.533
1418.083,   94.111
1419.620,   94.622
1421.156,   94.667
1422.691,   95.178
1424.225,   95.933
1425.759,   95.333
1427.292,   94.489
1428.824,   93.889
1430.355,   96.400
1431.886,   90.533
1433.416,   90.733
1434.945,   88.533
1436.473,   90.844
1438.001,   90.489
1439.528,  101.756
1441.054,  103.600
1442.580,  103.022
1444.104,  104.378
1445.628,  102.778
1447.152,  103.267
1448.674,  102.156
1450.196,  102.556
1451.717,  102.644
1453.237,  102.111
1454.757,  101.467
1456.276,  101.800
1457.794,  101.867
1459.311,  114.800
1460.827,  113.578
1462.343,  101.933
1463.858,  100.133
1465.373,  100.067
1466.886,  100.000
1468.399,  101.333
1469.912,  100.556
1471.423,   99.578
1472.934,   99.022
1474.444,   99.333
1475.953,   97.778
1477.461,  107.600
1478.969,  108.644
1480.476,  117.956
1481.982,  103.133
1483.488,  102.289
1484.993,  101.133
1486.497,  102.733
1488.000,  102.844
1489.503,  101.422
1491.005,   98.778
1492.506,  110.289
1494.007,  113.333
1495.506,  115.489
1497.005,  114.956
1498.504,  116.644
1500.001,  109.356
1501.498,  107.533
1502.994,   99.222
1504.490,  100.867
1505.984,  102.533
1507.478,  104.778
1508.971,  103.844
1510.464,  102.333
1511.956,  103.044
1513.447,  102.889
1514.937,   90.111
1516.427,   88.889
1517.916,   86.200
1519.404,   87.533
1520.891,   85.844
1522.378,   84.667
1523.864,   85.356
1525.349,   86.422
1526.834,   85.911
1528.318,   84.756
1529.801,   82.400
1531.283,   81.422
1532.765,   88.933
1534.246,   89.889
1535.726,   91.378
1537.206,   93.267
1538.685,   94.467
1540.163,   95.533
1541.640,   94.711
1543.117,   93.600
1544.593,   92.822
1546.068,   91.244
1547.543,   89.467
1549.016,   89.822
1550.490,   89.311
1551.962,   89.600
1553.434,   90.689
1554.905,   83.133
1556.375,   84.267
1557.845,   82.044
1559.313,   80.000
1560.782,   76.378
1562.249,   75.867
1563.716,   74.267
1565.182,   77.267
1566.647,   77.889
1568.112,   78.444
1569.576,   76.511
1571.039,   74.511
1572.501,   76.533
1573.963,   75.578
1575.424,   75.911
1576.885,   75.067
1578.344,   72.289
1579.803,   86.533
1581.262,   85.600
1582.719,   87.489
1584.176,   85.778
1585.632,   85.778
1587.088,   81.378
1588.543,   80.556
1589.997,   80.800
1591.450,   80.689
1592.903,   82.822
1594.355,   80.000
1595.806,   79.911
1597.256,   77.644
1598.706,   79.733
1600.155,   78.733
1601.604,   65.511
1603.052,   65.756
1604.499,   71.222
1605.945,   79.956
1607.391,   81.511
1608.836,   82.200
1610.280,   86.400
1611.724,   86.356
1613.167,   86.844
1614.609,   93.756
1616.050,   94.111
1617.491,   94.200
1618.931,   95.844
1620.371,   95.667
1621.809,   96.178
1623.247,   96.200
1624.685,   95.422
1626.122,   89.333
1627.557,   80.533
1628.993,   79.800
1630.427,   81.067
1631.861,   75.444
1633.295,   74.444
1634.727,   75.333
1636.159,   67.600
1637.590,   69.467
1639.021,   69.178
1640.450,   67.511
1641.879,   68.044
1643.308,   68.867
1644.735,   67.267
1646.163,   68.022
1647.589,   67.244
1649.015,   68.178
1650.440,   68.378
1651.864,   69.200
1653.287,   69.133
1654.710,   70.378
1656.133,   70.467
1657.554,   67.444
1658.975,   65.156
1660.395,   66.867
1661.815,   67.044
1663.234,   64.867
1664.652,   64.422
1666.069,   66.022
1667.486,   66.956
1668.902,   67.667
1670.318,   66.778
1671.732,   65.622
1673.146,   63.844
1674.560,   66.111
1675.973,   76.200
1677.385,   76.511
1678.796,   79.511
1680.207,   81.756
1681.617,   80.044
1683.026,   79.022
1684.435,   80.156
1685.843,   98.578
1687.250,   97.067
1688.657,   96.733
1690.063,   96.844
1691.468,   96.956
1692.873,   96.533
1694.277,   94.933
1695.680,   93.533
1697.082,   81.333
1698.484,   79.667
1699.886,   77.667
1701.286,   75.356
1702.686,   74.889
1704.085,   75.044
1705.484,   74.400
1706.882,   55.200
1708.279,   55.089
1709.676,   55.178
1711.072,   54.911
1712.467,   55.178
1713.861,   57.067
1715.255,   57.333
1716.649,   57.178
1718.041,   57.422
1719.433,   59.844
1720.824,   58.933
1722.215,   58.511
1723.605,   60.867
1724.994,   61.311
1726.383,   60.644
1727.771,   59.956
1729.158,   61.111
1730.544,   61.689
1731.930,   60.378
1733.316,   60.000
1734.700,   58.489
1736.084,   60.200
1737.467,   59.867
1738.850,   60.844
1740.232,   58.222
1741.613,   59.022
1742.994,   60.422
1744.374,   58.511
1745.753,   58.378
1747.132,   57.133
1748.510,   58.400
1749.887,   56.933
1751.264,   56.289
1752.640,   56.467
1754.015,   57.644
1755.390,   58.200
1756.764,   58.333
1758.138,   57.444
1759.510,   59.933
1760.883,   60.822
1762.254,   60.244
1763.625,   58.689
1764.995,   58.200
1766.364,   60.444
1767.733,   62.267
1769.101,   60.356
1770.469,   63.933
1771.836,   62.467
1773.202,   62.733
1774.568,   63.200
1775.933,   70.111
1777.297,   68.444
1778.660,   68.578
1780.023,   64.911
1781.386,   63.756
1782.747,   63.067
1784.108,   64.378
1785.469,   72.533
1786.829,   72.556
1788.188,   72.822
1789.546,   73.511
1790.904,   72.778
1792.261,   72.844
1793.618,   73.778
1794.973,   75.467
1796.329,   68.556
1797.683,   70.889
1799.037,   70.600
1800.390,   73.844
1801.743,   75.178
1803.095,   75.800
1804.446,   75.489
1805.797,   67.689
1807.147,   65.844
1808.496,   64.311
1809.845,   65.022
1811.193,   61.867
1812.541,   62.156
1813.888,   61.356
1815.234,   57.756
1816.579,   58.200
1817.924,   56.400
1819.269,   56.489
1820.612,   55.289
1821.955,   55.156
1823.298,   54.911
1824.639,   55.622
1825.980,   57.556
1827.321,   56.378
1828.661,   56.422
1830.000,   56.644
1831.338,   70.556
1832.676,   71.644
1834.014,   70.533
1835.350,   70.244
1836.686,   68.600
1838.022,   69.044
1839.356,   75.356
1840.690,   74.289
1842.024,   75.844
1843.357,   76.733
1844.689,   77.022
1846.020,   76.889
1847.351,   78.111
1848.682,   77.533
1850.011,   76.000
1851.340,   61.956
1852.669,   60.222
1853.997,   61.333
1855.324,   61.911
1856.650,   63.000
1857.976,   61.467
1859.301,   57.267
1860.626,   59.289
1861.950,   57.889
1863.273,   56.422
1864.596,   56.733
1865.918,   56.111
1867.240,   57.756
